wavelength dry wet acid apple
  0.400000  0.762200  0.654700  0.007900  0.119900
  0.401000  0.764600  0.656900  0.008400  0.120000
  0.402000  0.764900  0.658700  0.007800  0.121900
  0.403000  0.766600  0.660000  0.008500  0.122800
  0.404000  0.767900  0.662200  0.008400  0.124100
  0.405000  0.769200  0.664600  0.008400  0.125200
  0.406000  0.769400  0.665000  0.007800  0.126100
  0.407000  0.771500  0.665000  0.008400  0.127000
  0.408000  0.772800  0.666900  0.008400  0.127900
  0.409000  0.773000  0.668700  0.008400  0.129300
  0.410000  0.774100  0.669500  0.007900  0.129400
  0.411000  0.775700  0.670700  0.009000  0.130200
  0.412000  0.775800  0.671300  0.008400  0.132000
  0.413000  0.776300  0.672600  0.007800  0.132700
  0.414000  0.777300  0.672400  0.008400  0.133500
  0.415000  0.778500  0.673500  0.009000  0.134400
  0.416000  0.778300  0.675100  0.009000  0.135700
  0.417000  0.779600  0.676100  0.008500  0.136700
  0.418000  0.781200  0.675900  0.008500  0.138000
  0.419000  0.781800  0.676700  0.009100  0.139300
  0.420000  0.782700  0.678800  0.009100  0.140000
  0.421000  0.784100  0.679600  0.008400  0.141600
  0.422000  0.784200  0.679800  0.009100  0.142400
  0.423000  0.784600  0.681200  0.009100  0.143000
  0.424000  0.786400  0.681200  0.009000  0.144300
  0.425000  0.787200  0.681900  0.009000  0.145000
  0.426000  0.786400  0.682800  0.009000  0.146000
  0.427000  0.787500  0.684100  0.009600  0.147100
  0.428000  0.788800  0.684100  0.009000  0.148300
  0.429000  0.789100  0.684800  0.009100  0.149300
  0.430000  0.789400  0.686800  0.009700  0.149800
  0.431000  0.791000  0.687000  0.009700  0.151100
  0.432000  0.792000  0.686700  0.009000  0.151900
  0.433000  0.792000  0.688300  0.009600  0.153000
  0.434000  0.793800  0.689500  0.009700  0.153800
  0.435000  0.794500  0.689600  0.009700  0.154900
  0.436000  0.794400  0.690700  0.009100  0.155900
  0.437000  0.796200  0.692000  0.009700  0.156600
  0.438000  0.796300  0.691700  0.010300  0.157400
  0.439000  0.797100  0.692000  0.010300  0.158200
  0.440000  0.797700  0.693400  0.009700  0.158900
  0.441000  0.798100  0.693400  0.009700  0.160300
  0.442000  0.798900  0.693600  0.010200  0.160800
  0.443000  0.798300  0.694800  0.010200  0.162400
  0.444000  0.799100  0.695600  0.008400  0.163100
  0.445000  0.800900  0.695000  0.009000  0.164200
  0.446000  0.800200  0.696200  0.011400  0.165000
  0.447000  0.801100  0.697100  0.011500  0.165900
  0.448000  0.802100  0.696300  0.010900  0.166400
  0.449000  0.802400  0.696900  0.011400  0.168000
  0.450000  0.801900  0.698000  0.011500  0.168300
  0.451000  0.803100  0.699000  0.011500  0.169800
  0.452000  0.803900  0.698400  0.010900  0.170300
  0.453000  0.804200  0.698800  0.011500  0.170900
  0.454000  0.804400  0.699500  0.011500  0.171900
  0.455000  0.805700  0.700200  0.011500  0.172700
  0.456000  0.806300  0.700600  0.011500  0.173600
  0.457000  0.806500  0.700300  0.011500  0.174400
  0.458000  0.807000  0.701500  0.011500  0.175300
  0.459000  0.808000  0.702100  0.011400  0.176500
  0.460000  0.808400  0.702600  0.012000  0.177400
  0.461000  0.809100  0.703200  0.011400  0.178200
  0.462000  0.810200  0.703200  0.011500  0.179200
  0.463000  0.810200  0.703600  0.011500  0.180600
  0.464000  0.809800  0.703500  0.012100  0.181600
  0.465000  0.811100  0.703600  0.012700  0.182600
  0.466000  0.810900  0.703700  0.012100  0.183100
  0.467000  0.811300  0.704800  0.012100  0.183800
  0.468000  0.811900  0.705600  0.012100  0.185000
  0.469000  0.813000  0.704800  0.012700  0.185800
  0.470000  0.812400  0.705000  0.012100  0.186600
  0.471000  0.813400  0.706200  0.012000  0.187700
  0.472000  0.813500  0.706800  0.012700  0.188300
  0.473000  0.814000  0.706800  0.012000  0.189400
  0.474000  0.814300  0.706600  0.012100  0.190400
  0.475000  0.815800  0.708000  0.013300  0.191200
  0.476000  0.815800  0.708300  0.013200  0.191600
  0.477000  0.815800  0.708100  0.012600  0.193100
  0.478000  0.817100  0.707700  0.012700  0.193500
  0.479000  0.817100  0.709100  0.013300  0.194800
  0.480000  0.817000  0.710000  0.013300  0.196200
  0.481000  0.818900  0.710100  0.012700  0.197100
  0.482000  0.818300  0.709700  0.013200  0.197700
  0.483000  0.818600  0.710400  0.013900  0.199000
  0.484000  0.820100  0.711300  0.013300  0.200300
  0.485000  0.820400  0.711200  0.013200  0.201300
  0.486000  0.820500  0.710900  0.013900  0.202300
  0.487000  0.822000  0.711800  0.013800  0.203100
  0.488000  0.821700  0.713300  0.013800  0.204000
  0.489000  0.821600  0.712800  0.013800  0.205400
  0.490000  0.823000  0.712200  0.014400  0.206000
  0.491000  0.823100  0.712800  0.014400  0.207500
  0.492000  0.824000  0.713300  0.013700  0.207700
  0.493000  0.824700  0.714200  0.014400  0.209300
  0.494000  0.824900  0.713900  0.014400  0.210100
  0.495000  0.825400  0.714300  0.014300  0.210900
  0.496000  0.825600  0.714500  0.014300  0.211700
  0.497000  0.826500  0.715400  0.014900  0.213100
  0.498000  0.826700  0.715500  0.015500  0.214600
  0.499000  0.827400  0.715200  0.015400  0.215400
  0.500000  0.827500  0.715100  0.014800  0.216400
  0.501000  0.828300  0.715800  0.015400  0.217900
  0.502000  0.827800  0.716100  0.015400  0.218700
  0.503000  0.827400  0.715800  0.015400  0.219800
  0.504000  0.828600  0.715900  0.015400  0.220800
  0.505000  0.828700  0.715500  0.015900  0.221900
  0.506000  0.829400  0.716200  0.015900  0.222900
  0.507000  0.829400  0.716800  0.015300  0.224100
  0.508000  0.830600  0.716800  0.015900  0.225300
  0.509000  0.830600  0.716900  0.016500  0.226300
  0.510000  0.829400  0.717100  0.015900  0.227000
  0.511000  0.830500  0.718600  0.015900  0.228400
  0.512000  0.831200  0.718400  0.016500  0.229700
  0.513000  0.831100  0.717800  0.016500  0.231000
  0.514000  0.831600  0.718100  0.015900  0.231600
  0.515000  0.832600  0.719500  0.016500  0.232800
  0.516000  0.832500  0.718700  0.016500  0.234500
  0.517000  0.832300  0.718500  0.016600  0.235300
  0.518000  0.832700  0.719600  0.016600  0.236100
  0.519000  0.834300  0.720200  0.017100  0.237800
  0.520000  0.833600  0.719700  0.017200  0.238700
  0.521000  0.834500  0.719500  0.017100  0.240000
  0.522000  0.835400  0.719500  0.017200  0.240600
  0.523000  0.835600  0.720800  0.017800  0.242700
  0.524000  0.834800  0.720500  0.017200  0.243700
  0.525000  0.836200  0.720200  0.017700  0.245000
  0.526000  0.836400  0.721200  0.017700  0.246400
  0.527000  0.836200  0.720900  0.018300  0.247700
  0.528000  0.836700  0.720900  0.017700  0.248700
  0.529000  0.837400  0.721700  0.017700  0.249800
  0.530000  0.837300  0.721900  0.018300  0.251100
  0.531000  0.837000  0.722400  0.018200  0.251700
  0.532000  0.838100  0.721900  0.018300  0.253100
  0.533000  0.838700  0.721800  0.018200  0.254000
  0.534000  0.838000  0.722500  0.018800  0.255600
  0.535000  0.838800  0.722300  0.019000  0.257100
  0.536000  0.839200  0.721800  0.018500  0.258300
  0.537000  0.838600  0.722400  0.018500  0.259300
  0.538000  0.839200  0.723900  0.019100  0.260900
  0.539000  0.840900  0.723300  0.019700  0.262300
  0.540000  0.841400  0.723800  0.019100  0.263700
  0.541000  0.840400  0.723900  0.019100  0.264700
  0.542000  0.839900  0.723000  0.019700  0.265000
  0.543000  0.840500  0.722600  0.019700  0.266600
  0.544000  0.841700  0.723800  0.019700  0.267500
  0.545000  0.840600  0.723900  0.019700  0.268500
  0.546000  0.840800  0.724000  0.020300  0.269900
  0.547000  0.842000  0.723300  0.020200  0.271400
  0.548000  0.843300  0.724500  0.020200  0.272800
  0.549000  0.842300  0.724700  0.020200  0.273900
  0.550000  0.843500  0.723800  0.020800  0.275300
  0.551000  0.844100  0.724600  0.020800  0.276300
  0.552000  0.844700  0.725700  0.020800  0.277500
  0.553000  0.844500  0.725800  0.021300  0.278900
  0.554000  0.845100  0.725000  0.021100  0.280400
  0.555000  0.846000  0.726100  0.021200  0.281400
  0.556000  0.845200  0.726100  0.021900  0.283000
  0.557000  0.845700  0.725500  0.021900  0.283800
  0.558000  0.847200  0.726000  0.021900  0.285100
  0.559000  0.847300  0.726400  0.021500  0.286700
  0.560000  0.847500  0.727000  0.022200  0.287900
  0.561000  0.850900  0.730200  0.022400  0.290300
  0.562000  0.852000  0.729800  0.022400  0.291700
  0.563000  0.851100  0.731100  0.023000  0.293000
  0.564000  0.851400  0.730600  0.023600  0.294000
  0.565000  0.851700  0.730000  0.023500  0.295500
  0.566000  0.851800  0.730700  0.023000  0.296300
  0.567000  0.851700  0.730900  0.023500  0.298100
  0.568000  0.852600  0.730300  0.024200  0.299300
  0.569000  0.853200  0.730700  0.024200  0.300600
  0.570000  0.852800  0.731300  0.023600  0.301800
  0.571000  0.852200  0.730400  0.023700  0.302800
  0.572000  0.852500  0.730800  0.024200  0.304200
  0.573000  0.853100  0.730200  0.024700  0.305300
  0.574000  0.851300  0.729900  0.024300  0.307300
  0.575000  0.851300  0.729800  0.024500  0.307600
  0.576000  0.852500  0.729800  0.024700  0.309100
  0.577000  0.851400  0.729700  0.024800  0.310300
  0.578000  0.852200  0.730600  0.024900  0.311700
  0.579000  0.852700  0.731000  0.024900  0.313100
  0.580000  0.852500  0.730600  0.025500  0.314500
  0.581000  0.852300  0.728500  0.025400  0.315900
  0.582000  0.851700  0.729000  0.025500  0.317500
  0.583000  0.852300  0.730300  0.025500  0.318400
  0.584000  0.853100  0.729600  0.026600  0.320000
  0.585000  0.852100  0.729400  0.026000  0.321000
  0.586000  0.852200  0.729500  0.026000  0.322400
  0.587000  0.853600  0.729500  0.026000  0.324000
  0.588000  0.853700  0.729700  0.026700  0.325200
  0.589000  0.852100  0.728600  0.026700  0.326800
  0.590000  0.853400  0.729900  0.026700  0.328000
  0.591000  0.854100  0.730300  0.027200  0.329400
  0.592000  0.855100  0.730400  0.027800  0.330500
  0.593000  0.853900  0.729600  0.027200  0.332300
  0.594000  0.855300  0.730900  0.027200  0.333900
  0.595000  0.854900  0.730600  0.027900  0.334500
  0.596000  0.855400  0.730300  0.027900  0.336300
  0.597000  0.855200  0.731000  0.027900  0.337100
  0.598000  0.856300  0.730900  0.028400  0.338700
  0.599000  0.857400  0.730600  0.029000  0.339600
  0.600000  0.857000  0.731000  0.029000  0.341000
  0.601000  0.856600  0.732500  0.028400  0.342300
  0.602000  0.857400  0.731500  0.029400  0.343300
  0.603000  0.858100  0.732400  0.029900  0.344500
  0.604000  0.857900  0.733500  0.029700  0.346000
  0.605000  0.858200  0.733500  0.029600  0.347500
  0.606000  0.858300  0.732100  0.030100  0.348600
  0.607000  0.858800  0.733300  0.030700  0.349400
  0.608000  0.858000  0.732800  0.030800  0.350600
  0.609000  0.857900  0.731800  0.030700  0.351300
  0.610000  0.858100  0.732600  0.031300  0.352500
  0.611000  0.858700  0.732600  0.031900  0.353500
  0.612000  0.858100  0.732500  0.031800  0.354300
  0.613000  0.857500  0.732700  0.031200  0.355800
  0.614000  0.858000  0.733200  0.031700  0.356000
  0.615000  0.858200  0.732900  0.032300  0.356800
  0.616000  0.858100  0.731700  0.032400  0.358000
  0.617000  0.857600  0.732200  0.032400  0.359200
  0.618000  0.858000  0.733000  0.033000  0.359700
  0.619000  0.858400  0.731400  0.033500  0.360700
  0.620000  0.857400  0.731300  0.032900  0.362000
  0.621000  0.858600  0.731500  0.032900  0.362600
  0.622000  0.858200  0.732200  0.033000  0.363400
  0.623000  0.858300  0.731800  0.034300  0.364500
  0.624000  0.858200  0.732000  0.034200  0.365200
  0.625000  0.858200  0.731700  0.034100  0.366300
  0.626000  0.859300  0.732900  0.035100  0.367200
  0.627000  0.858300  0.731900  0.035200  0.368300
  0.628000  0.858300  0.731400  0.035400  0.368900
  0.629000  0.859300  0.732100  0.035300  0.369400
  0.630000  0.859700  0.732600  0.036400  0.371100
  0.631000  0.858500  0.731700  0.036400  0.371700
  0.632000  0.859100  0.732200  0.037000  0.372700
  0.633000  0.859900  0.733000  0.036500  0.373400
  0.634000  0.860200  0.733100  0.037200  0.374500
  0.635000  0.858800  0.731800  0.037700  0.374700
  0.636000  0.860500  0.732100  0.037700  0.375500
  0.637000  0.860400  0.732900  0.037600  0.376700
  0.638000  0.860400  0.732600  0.038700  0.377500
  0.639000  0.859300  0.732300  0.038800  0.377900
  0.640000  0.860600  0.732800  0.038800  0.378600
  0.641000  0.859800  0.732900  0.038800  0.379900
  0.642000  0.859700  0.731400  0.039900  0.380100
  0.643000  0.860200  0.732700  0.039900  0.381300
  0.644000  0.860800  0.732800  0.039300  0.381500
  0.645000  0.861200  0.731900  0.040000  0.382000
  0.646000  0.859600  0.732100  0.040700  0.382800
  0.647000  0.860700  0.732500  0.040600  0.383100
  0.648000  0.861100  0.733300  0.040600  0.384000
  0.649000  0.860600  0.732000  0.041700  0.384100
  0.650000  0.859900  0.732300  0.041600  0.385600
  0.651000  0.861200  0.732500  0.041700  0.386000
  0.652000  0.861200  0.731900  0.042300  0.386700
  0.653000  0.860700  0.731300  0.042900  0.387100
  0.654000  0.860500  0.732700  0.042300  0.387600
  0.655000  0.860900  0.732600  0.042900  0.388000
  0.656000  0.861400  0.731700  0.043500  0.389300
  0.657000  0.860900  0.731600  0.043400  0.390200
  0.658000  0.860600  0.731800  0.043500  0.389900
  0.659000  0.861300  0.731100  0.044800  0.391100
  0.660000  0.860700  0.731100  0.044800  0.391800
  0.661000  0.860600  0.731400  0.044800  0.392300
  0.662000  0.861700  0.731600  0.045200  0.392400
  0.663000  0.861700  0.731200  0.045800  0.393400
  0.664000  0.860200  0.731300  0.045700  0.393900
  0.665000  0.861300  0.731300  0.046400  0.394900
  0.666000  0.861900  0.731500  0.046900  0.395200
  0.667000  0.861200  0.730500  0.046900  0.396100
  0.668000  0.861500  0.730400  0.046900  0.396300
  0.669000  0.861600  0.731600  0.048100  0.397600
  0.670000  0.861600  0.731500  0.048200  0.398200
  0.671000  0.860700  0.731100  0.047700  0.398500
  0.672000  0.860800  0.731200  0.048900  0.398900
  0.673000  0.862000  0.731100  0.048900  0.400400
  0.674000  0.861300  0.731100  0.049300  0.400800
  0.675000  0.860600  0.730200  0.049800  0.401800
  0.676000  0.861300  0.731000  0.050400  0.402700
  0.677000  0.861300  0.730700  0.050600  0.403400
  0.678000  0.860800  0.730400  0.050000  0.403900
  0.679000  0.862300  0.730400  0.050600  0.404000
  0.680000  0.861500  0.731900  0.050500  0.404200
  0.681000  0.861500  0.731100  0.049800  0.405500
  0.682000  0.861600  0.730000  0.050500  0.405600
  0.683000  0.861900  0.730600  0.050600  0.406700
  0.684000  0.862200  0.730900  0.050700  0.407700
  0.685000  0.862000  0.731100  0.051200  0.408300
  0.686000  0.862500  0.731400  0.051600  0.408500
  0.687000  0.863100  0.730900  0.052100  0.409300
  0.688000  0.862100  0.731800  0.052100  0.409600
  0.689000  0.862600  0.731000  0.052200  0.410500
  0.690000  0.863700  0.730800  0.052800  0.411300
  0.691000  0.862900  0.731200  0.054000  0.411600
  0.692000  0.862800  0.731600  0.056300  0.411600
  0.693000  0.863900  0.730800  0.056300  0.412300
  0.694000  0.864100  0.731100  0.057500  0.413200
  0.695000  0.864300  0.731700  0.057700  0.413900
  0.696000  0.863800  0.731900  0.057800  0.414700
  0.697000  0.864200  0.731100  0.058300  0.414500
  0.698000  0.864600  0.731500  0.058800  0.415500
  0.699000  0.863500  0.732100  0.058100  0.415700
  0.700000  0.863600  0.730200  0.057800  0.415800
  0.701000  0.864100  0.731000  0.057800  0.416800
  0.702000  0.866000  0.731900  0.060000  0.417400
  0.703000  0.865500  0.731700  0.060100  0.417700
  0.704000  0.865500  0.731300  0.061200  0.418600
  0.705000  0.865700  0.730800  0.061200  0.418500
  0.706000  0.865400  0.730900  0.061500  0.419300
  0.707000  0.864200  0.730200  0.062600  0.419600
  0.708000  0.864800  0.729400  0.062700  0.420200
  0.709000  0.865500  0.730200  0.062700  0.420400
  0.710000  0.865300  0.729200  0.063400  0.420800
  0.711000  0.864500  0.729200  0.063300  0.421300
  0.712000  0.865000  0.729200  0.062700  0.422100
  0.713000  0.865000  0.729000  0.063400  0.422300
  0.714000  0.864000  0.728100  0.063600  0.422100
  0.715000  0.864300  0.727700  0.063600  0.422700
  0.716000  0.864500  0.728500  0.064600  0.423500
  0.717000  0.864100  0.727700  0.065600  0.423100
  0.718000  0.863400  0.727400  0.066100  0.424000
  0.719000  0.863600  0.726700  0.066300  0.424000
  0.720000  0.864800  0.727500  0.066200  0.424200
  0.721000  0.864000  0.727000  0.067500  0.424900
  0.722000  0.862700  0.726700  0.068600  0.425300
  0.723000  0.863900  0.726300  0.068500  0.425800
  0.724000  0.864800  0.726300  0.068700  0.426200
  0.725000  0.865000  0.726300  0.069400  0.426300
  0.726000  0.864400  0.726300  0.069400  0.426900
  0.727000  0.863600  0.725500  0.069700  0.427100
  0.728000  0.864100  0.726100  0.070100  0.427300
  0.729000  0.864200  0.725700  0.071400  0.427900
  0.730000  0.864900  0.725100  0.072200  0.428000
  0.731000  0.864100  0.726100  0.072800  0.428700
  0.732000  0.863900  0.724800  0.072500  0.428900
  0.733000  0.863900  0.723900  0.073100  0.429700
  0.734000  0.864800  0.723600  0.073900  0.429400
  0.735000  0.864900  0.724400  0.074100  0.430100
  0.736000  0.864200  0.723500  0.074600  0.430400
  0.737000  0.864600  0.723200  0.075000  0.430800
  0.738000  0.864000  0.723200  0.075400  0.431000
  0.739000  0.863100  0.723000  0.075600  0.431100
  0.740000  0.863800  0.723300  0.075600  0.431500
  0.741000  0.864600  0.723200  0.076600  0.431900
  0.742000  0.864500  0.722600  0.077200  0.432000
  0.743000  0.864000  0.723300  0.077700  0.432700
  0.744000  0.864400  0.722300  0.078500  0.432700
  0.745000  0.865000  0.721900  0.079300  0.433000
  0.746000  0.864100  0.722300  0.079700  0.433000
  0.747000  0.863700  0.723000  0.080100  0.433700
  0.748000  0.863900  0.722600  0.080500  0.434400
  0.749000  0.863900  0.722100  0.081900  0.433900
  0.750000  0.863100  0.722300  0.082400  0.434900
  0.751000  0.863400  0.723300  0.082900  0.434800
  0.752000  0.864500  0.722100  0.084000  0.435300
  0.753000  0.863700  0.721600  0.084300  0.435100
  0.754000  0.862800  0.722000  0.084400  0.435400
  0.755000  0.864200  0.722600  0.084900  0.435400
  0.756000  0.863100  0.721800  0.085100  0.436100
  0.757000  0.862600  0.721000  0.085200  0.436100
  0.758000  0.863100  0.721400  0.085900  0.436200
  0.759000  0.864200  0.722100  0.085400  0.436900
  0.760000  0.863400  0.720700  0.086400  0.437400
  0.761000  0.861900  0.720700  0.087400  0.437400
  0.762000  0.862700  0.721600  0.087600  0.437400
  0.763000  0.863800  0.721700  0.087800  0.438100
  0.764000  0.862700  0.721400  0.088900  0.437700
  0.765000  0.862600  0.721100  0.089700  0.438500
  0.766000  0.862700  0.721700  0.089700  0.438300
  0.767000  0.863400  0.721300  0.090400  0.438900
  0.768000  0.863200  0.721800  0.091200  0.439000
  0.769000  0.863100  0.721500  0.092000  0.439400
  0.770000  0.863800  0.722400  0.091300  0.440100
  0.771000  0.863500  0.721300  0.092200  0.439800
  0.772000  0.863500  0.721000  0.092400  0.440100
  0.773000  0.863900  0.722700  0.092900  0.440400
  0.774000  0.863800  0.721500  0.093200  0.440800
  0.775000  0.862900  0.721600  0.093900  0.440600
  0.776000  0.863000  0.722700  0.095100  0.441300
  0.777000  0.864400  0.722300  0.096900  0.441600
  0.778000  0.863700  0.722000  0.097200  0.441700
  0.779000  0.862600  0.721600  0.098400  0.441200
  0.780000  0.864000  0.721400  0.098700  0.441600
  0.781000  0.862900  0.722400  0.098700  0.442200
  0.782000  0.862900  0.721700  0.099600  0.442400
  0.783000  0.862900  0.722100  0.100500  0.442100
  0.784000  0.864700  0.722400  0.100600  0.442700
  0.785000  0.863000  0.721500  0.100600  0.442500
  0.786000  0.863900  0.721700  0.101800  0.442500
  0.787000  0.863800  0.722200  0.102400  0.442700
  0.788000  0.862800  0.722600  0.103000  0.442700
  0.789000  0.863000  0.721600  0.103200  0.443400
  0.790000  0.864200  0.722900  0.104300  0.443400
